#f/MHz I11/A I12/A I21/A I22/A
0.1 0.58 0 0.695 0
0.2 0.03 0.41 0.03 0.645
0.3 0.06 0.11 0.06 0.565
0.4 0.075 0.215 0.075 0.695
0.5 0.09 0.245 0.09 0.835
0.6 0.1125 0.15 0.1125 0.86
0.7 0.135 0.075 0.135 0.9
0.8 0.156 0.01 0.156 0.96
0.9 0.135 0.54 0.21 0.535
1.0 0.15 0.56 0.225 0.655
